Centroid Mass	S/N
1993.17	4.28526049790671
2003.33	3.79363340367681
2013.5	6.71236597036607
2029.67	3.62725182868321
2041.63	5.73829933371082
2053.62	11.3845650744965
2069.95	12.6265259533561
2083.75	11.5484682335545
2098.46	7.65241029587745
2113.23	7.45912356182582
2127.61	12.7889577003763
2142.91	5.55100080664733
2155.2	7.40951473332182
2170.16	20.2578679288393
2184.29	6.51949136435764
2201.14	7.12759988619173
2215.37	13.6610493346603
2228.3	6.27641521973472
2242.62	7.30339514647495
2271.85	6.77362455824316
2285.86	6.13412905643258
2296.73	12.870931802675
2329.51	5.06673559085038
2342.78	5.21719614813767
2358.38	4.83115954522851
2365.74	5.2090434309262
2385.58	6.77342272910956
2399.93	10.1441842419438
2413.4	5.22615525684578
2428.77	8.55137283326991
2443.25	11.7727973785848
2458.72	14.6581271853111
2471.88	8.71363260013766
2486.49	19.0961034434871
2529.63	11.8963631811885
2542.5	3.69355203703093
2556.84	14.1451011474781
2572.66	5.85608856067847
2588.05	3.48958964919998
2601.07	4.63353487438349
2611.7	4.49255002695059
2644.7	7.29309409880473
2657.87	20.6807709557095
2671.06	7.33382014591549
2687.72	8.81551870233977
2700.01	6.21376210004789
2715.28	12.9091077966146
2729.6	10.8107311434383
2743.97	10.0373380616208
2758.37	14.7657668309182
2773.31	7.51015197958555
2787.29	12.5005976146423
2801.3	21.5973657810734
2817.86	5.53140306074511
2830.94	5.67684290325659
2845.07	17.029088377477
2857.2	3.28355849068034
2871.9	7.63058830761351
2887.65	5.46956234862167
2900.38	3.50768270859706
2916.21	6.65434421204434
2931.06	5.23109105413809
2943.37	5.5325501628067
2958.81	8.0944519081889
2973.25	5.46470123978982
2988.24	6.84188335761823
3002.23	0.570488532563313
3016.26	4.88625461543381
3030.83	7.24159313449044
3045.97	8.01061389910968
3060.1	5.19432838880899
3073.73	6.22174002101658
3086.35	70.1078704221752
3110.59	39.7484100948745
3159.91	6.90067689229943
3190.32	3.64084080028049
3231.64	3.85763534211207
3258.62	18.2061720924966
3273.77	4.71373664531281
3301.47	3.82390310113219
3321.63	14.7634499126688
3362.15	3.59435149288225
3373.69	5.41444560348888
3388.56	6.09841373468399
3401.25	6.30992195053441
3413.42	4.96193488543042
3431.7	5.69277953038487
3450.04	69.4282058495234
3474	5.67586858877235
3491.89	12.1587826457278
3503.09	4.78883457097928
3533.43	3.91671723281005
3544.7	6.97930198677231
3560.51	4.70434041243561
3575.79	4.23772692507308
3589.96	4.9242954983938
3614.41	11.8564528151475
3631.51	5.33721335575192
3641.79	10.4078023886773
3660.11	4.96733354228198
3680.77	7.53496988804477
3704.37	11.5554853933109
3746	7.23051197393236
3760.51	5.31570640562848
3788.44	4.4944027061974
3801.87	4.42035417982149
3817.07	4.8298265038431
3839.93	6.22980173902794
3860.5	4.13261645891768
3889.99	6.55557652261587
3914.25	6.41979222391144
3930.87	6.01613151000004
3954.07	11.1307548031866
3991.09	100.967923205922
4018.07	3.35282056113841
4059.62	6.25794958810101
4077.75	20.5486082369806
4160.45	5.55617889816708
4175.13	3.1533042385525
4188.61	3.54541216240633
4232.26	3.40678190501543
4311.54	63.4652423495937
4329.6	4.42723089031597
4362.08	3.66313906610428
4377.11	21.5873417224236
4402.86	11.8763412198029
4446.35	5.07915552974723
4457.73	23.0317863774864
4484.35	12.7269853521715
4552.51	6.54789968217391
4575.55	4.41875666114997
4594.16	7.99148925129163
4663.15	7.13233636690862
4687.78	9.26006289563149
4705.97	4.49476962248677
4760.74	3.28571722335046
4788.9	20.4140428391944
4830.97	3.80961036980254
4954.28	6.30590803243111
4984.35	120.928566360757
5011.83	3.92537186241522
5102.83	11.2106401486493
5120.45	17.8307260265146
5136.75	3.267224173024
5161.91	28.8096298401698
5183.73	63.8009062960169
5344.68	5.83882050551487
5423.28	39.7022079327841
5505.98	5.49062128335293
5594.28	3.13508016616158
5615.57	7.41283396625211
5643.31	10.798785817527
5760.73	31.8123243974049
5871.37	10.5894780156409
5932.57	6.66875733399853
5953.77	3.50686390254655
6005.83	8.28393528107267
6176.8	181.423485656177
6196.94	8.79291150026814
6225.35	78.1234055659037
6384.24	4.41032490996466
6496.89	8.7440782753183
6520.61	30.4668438281877
6629.83	3.66434366365246
6662.31	6.22871674094018
6686.33	17.8576841847086
6726.73	42.5671989028441
6853.35	10.0163603251182
6902.13	124.481203115612
6917.11	4.8764324890465
6938.43	4.28541883986755
6987.51	29.1841241689636
7051.89	4.30955480120509
7187.18	5.3805494109123
7284.83	20.778494409835
7311.58	3.85046843392976
7413.34	24.7493123727555
7449.33	5.34921319224456
7562.78	4.21458001201883
7778.86	108.011416446037
7909.13	14.5861473177957
7981.88	114.530178046645
8003.09	6.05633073778504
8077.12	4.07007586075689
8117.26	3.3536195388151
8155.79	35.180618568967
8224.5	3.40996232058986
8562.76	3.60264258511411
8608.49	17.6671547590587
8620.83	111.232622256317
8644.64	3.32125807761313
8679.09	10.8199739545148
8805.13	20.3531787307085
8886.38	15.4730830462333
8929.38	3.62957779080564
9006.7	23.7524307786952
9104.27	12.9287331014628
9187.8	18.2847475244521
9269.89	6.87794936457129
9413.05	3.11852206020013
9574.95	38.3027242008585
9707.35	3.37435797511101
9906.72	8.82329281521045
9949.3	5.34056860045282
9966.35	201.963766542757
10202.87	11.7955688177238
10273.02	4.66325147399768
10322.17	57.0865979762658
10361.78	15.7515993009059
10687.22	3.38343592246422
10845.91	69.4953768373373
11009.76	8.43281313366647
11520.97	43.6144305618648
11623.18	3.37414128063637
11743.35	25.5526688925605
11858.96	14.1557693684515
11905.57	3.26013873305513
12106.52	7.90704542550402
12411.66	8.21223421282832
12553.95	3.56861613709539
12990.04	50.7133489490102
13320.39	21.885297820125
13366.51	11.530418549191
13452.37	59.4525333842706
13992.49	22.2354060304186
14071.33	7.18427720698517
14851.15	3.50636931548212
15135.29	4.36009041978916
15554.73	228.597666381717
15580.84	5.00369171122865
15700.99	16.4426621747883
16282.01	5.04270838010587
17356.68	15.2552312644416
17772.89	12.7559047637814
17993.07	27.9671781870695
19154.01	18.407743893065
19886.95	25.3675502070242
